##NAMES=Abelsonite
##RRUFFID=R070007
##IDEAL CHEMISTRY=NiC_31_H_32_N_4_
##LOCALITY=Green River Formation, Utah, USA
##OWNER=RRUFF
##SOURCE=Geophysical Laboratory, Carnegie Institution of Washington
##DESCRIPTION=Purple platy crystals embedded in drill core
##STATUS=The identification of this mineral is confirmed by single-crystal X-ray diffraction and chemical analysis
##URL=https://www.rruff.net/odr/rruff_sample/R070007
##MEASURED CHEMISTRY=(Ni_0.92_Fe^2+^_0.05_Cr_0.02_)C_31_H_32_N_4_ ; C, H and N not measured but estimated by stoichiometry
##DIFFRACTION SAMPLE DESCRIPTION=Single crystal, powder profile is calculated for Cu radiation
##CELL PARAMETERS=a: 8.5 b: 11.2 c: 7.26 alpha: 91.21 beta: 113.61 gamma: 79.73 volume: 622 crystal system: triclinic
##FILETYPE=Raman RAW
##RAMAN WAVELENGTH=785

233.3128, 57152.48
235.2412, 57261.07
237.1697, 57364.70
239.0982, 57480.22
241.0266, 57593.77
242.9551, 57702.70
244.8836, 57797.93
246.8120, 57856.58
248.7405, 57885.76
250.6690, 57910.46
252.5974, 57927.74
254.5259, 57939.24
256.4544, 57953.45
258.3828, 57963.18
260.3113, 57953.41
262.2398, 57931.95
264.1682, 57919.88
266.0967, 57913.61
268.0252, 57889.17
269.9536, 57829.78
271.8821, 57794.13
273.8106, 57828.65
275.7390, 57857.77
277.6675, 57835.04
279.5960, 57780.23
281.5244, 57717.57
283.4529, 57654.77
285.3814, 57626.63
287.3098, 57644.54
289.2383, 57661.59
291.1668, 57661.51
293.0952, 57673.00
295.0237, 57714.41
296.9522, 57761.54
298.8806, 57804.03
300.8091, 57831.93
302.7376, 57808.80
304.6660, 57720.99
306.5945, 57650.11
308.5230, 57600.70
310.4514, 57570.20
312.3799, 57536.79
314.3084, 57545.14
316.2368, 57667.51
318.1653, 57821.26
320.0938, 57901.72
322.0222, 57911.01
323.9507, 57891.35
325.8792, 57813.27
327.8077, 57777.25
329.7361, 57800.88
331.6646, 57838.91
333.5931, 57884.92
335.5215, 57927.18
337.4500, 57952.50
339.3785, 57971.79
341.3069, 58013.41
343.2354, 58071.39
345.1639, 58079.43
347.0923, 58040.76
349.0208, 57979.15
350.9493, 57892.78
352.8777, 57788.21
354.8062, 57674.06
356.7347, 57541.27
358.6631, 57376.06
360.5916, 57191.29
362.5201, 57007.63
364.4485, 56816.39
366.3770, 56630.45
368.3055, 56453.34
370.2339, 56285.48
372.1624, 56145.02
374.0909, 55983.58
376.0193, 55742.68
377.9478, 55521.57
379.8763, 55432.67
381.8047, 55404.66
383.7332, 55268.91
385.6617, 55040.80
387.5901, 54889.63
389.5186, 54862.86
391.4471, 54818.46
393.3755, 54726.80
395.3040, 54607.43
397.2325, 54460.51
399.1609, 54319.55
401.0894, 54184.36
403.0179, 54067.84
404.9464, 53990.36
406.8748, 53937.40
408.8033, 53858.32
410.7318, 53750.12
412.6602, 53645.57
414.5887, 53539.48
416.5172, 53430.68
418.4456, 53311.04
420.3741, 53233.57
422.3026, 53251.74
424.2310, 53248.29
426.1595, 53138.73
428.0880, 52990.25
430.0164, 52888.04
431.9449, 52813.36
433.8734, 52741.91
435.8018, 52688.05
437.7303, 52634.73
439.6588, 52577.45
441.5872, 52502.23
443.5157, 52391.09
445.4442, 52255.32
447.3726, 52110.95
449.3011, 51996.51
451.2296, 51930.80
453.1580, 51893.78
455.0865, 51858.79
457.0150, 51829.19
458.9434, 51768.02
460.8719, 51645.64
462.8004, 51501.23
464.7288, 51388.75
466.6573, 51337.10
468.5858, 51278.14
470.5142, 51156.78
472.4427, 51012.15
474.3712, 50915.28
476.2996, 50878.43
478.2281, 50837.01
480.1566, 50737.02
482.0850, 50612.16
484.0135, 50544.91
485.9420, 50538.42
487.8704, 50492.58
489.7989, 50417.64
491.7274, 50316.81
493.6558, 50105.33
495.5843, 49941.80
497.5128, 49960.50
499.4412, 50009.41
501.3697, 49931.73
503.2982, 49804.83
505.2266, 49729.04
507.1551, 49672.77
509.0836, 49569.39
511.0120, 49436.68
512.9405, 49331.68
514.8690, 49233.95
516.7974, 49116.62
518.7259, 49003.40
520.6544, 48927.16
522.5828, 48875.90
524.5113, 48799.62
526.4398, 48677.81
528.3682, 48592.88
530.2967, 48601.95
532.2252, 48583.55
534.1536, 48419.80
536.0821, 48220.57
538.0106, 48151.46
539.9390, 48142.59
541.8675, 48060.30
543.7960, 47944.94
545.7244, 47845.34
547.6529, 47725.93
549.5814, 47635.07
551.5098, 47627.64
553.4383, 47585.59
555.3668, 47473.75
557.2952, 47388.34
559.2237, 47330.83
561.1522, 47237.24
563.0806, 47126.29
565.0091, 47038.01
566.9376, 46943.86
568.8660, 46827.06
570.7945, 46726.49
572.7230, 46674.67
574.6514, 46658.84
576.5799, 46646.86
578.5084, 46579.56
580.4368, 46471.33
582.3653, 46331.88
584.2938, 46124.49
586.2222, 45988.16
588.1507, 45999.80
590.0792, 45989.86
592.0076, 45865.59
593.9361, 45760.40
595.8646, 45734.18
597.7930, 45705.93
599.7215, 45639.30
601.6500, 45556.59
603.5784, 45463.89
605.5069, 45387.26
607.4354, 45349.17
609.3638, 45287.31
611.2923, 45157.16
613.2208, 45035.56
615.1492, 44979.97
617.0777, 44923.26
619.0062, 44824.04
620.9346, 44704.40
622.8631, 44583.43
624.7916, 44477.62
626.7200, 44397.73
628.6485, 44323.47
630.5770, 44212.74
632.5054, 44055.61
634.4339, 43940.56
636.3624, 43926.36
638.2908, 43932.64
640.2193, 43874.86
642.1478, 43779.69
644.0762, 43745.36
646.0047, 43748.42
647.9332, 43646.10
649.8616, 43434.74
651.7901, 43319.59
653.7186, 43351.05
655.6470, 43336.26
657.5755, 43227.47
659.5040, 43131.24
661.4324, 43063.03
663.3609, 42997.55
665.2894, 42927.03
667.2178, 42834.29
669.1463, 42708.91
671.0748, 42601.30
673.0032, 42520.76
674.9317, 42478.73
676.8602, 42511.16
678.7886, 42510.30
680.7171, 42422.07
682.6456, 42333.32
684.5740, 42249.26
686.5025, 42136.73
688.4310, 42058.23
690.3594, 42041.43
692.2879, 42054.93
694.2164, 42064.82
696.1448, 42011.09
698.0734, 41933.93
700.0018, 41956.00
701.9303, 42042.78
703.8588, 42008.95
705.7872, 41855.03
707.7157, 41752.62
709.6442, 41712.97
711.5726, 41660.16
713.5011, 41604.96
715.4296, 41533.79
717.3580, 41420.11
719.2865, 41308.39
721.2150, 41225.22
723.1434, 41152.70
725.0719, 41059.05
727.0004, 40975.91
728.9288, 40966.86
730.8573, 40948.70
732.7858, 40828.45
734.7142, 40681.70
736.6427, 40576.28
738.5712, 40495.31
740.4996, 40399.51
742.4281, 40291.74
744.3566, 40215.86
746.2850, 40183.73
748.2135, 40180.70
750.1420, 40183.50
752.0704, 40132.34
753.9989, 40031.44
755.9274, 39937.37
757.8558, 39857.47
759.7843, 39803.48
761.7128, 39771.98
763.6412, 39732.52
765.5697, 39684.01
767.4982, 39634.22
769.4266, 39582.02
771.3551, 39542.18
773.2836, 39528.00
775.2120, 39479.01
777.1405, 39355.41
779.0690, 39261.76
780.9974, 39253.46
782.9259, 39235.29
784.8544, 39157.36
786.7828, 39095.54
788.7113, 39100.34
790.6398, 39096.21
792.5682, 39040.54
794.4967, 38969.86
796.4252, 38902.30
798.3536, 38832.04
800.2821, 38761.94
802.2106, 38689.77
804.1390, 38592.75
806.0675, 38500.76
807.9960, 38473.43
809.9244, 38456.43
811.8529, 38361.32
813.7814, 38229.28
815.7098, 38127.29
817.6383, 38041.34
819.5668, 37953.41
821.4952, 37873.21
823.4237, 37804.44
825.3522, 37738.66
827.2806, 37650.26
829.2091, 37538.63
831.1376, 37444.82
833.0660, 37379.78
834.9945, 37312.25
836.9230, 37231.82
838.8514, 37129.77
840.7799, 36996.53
842.7084, 36861.41
844.6368, 36748.13
846.5653, 36663.70
848.4938, 36581.50
850.4222, 36502.63
852.3507, 36467.79
854.2792, 36390.09
856.2076, 36209.87
858.1361, 36069.40
860.0646, 36024.84
861.9930, 36000.23
863.9215, 35971.60
865.8500, 35937.88
867.7784, 35893.38
869.7069, 35849.04
871.6354, 35830.09
873.5638, 35811.30
875.4923, 35755.11
877.4208, 35696.96
879.3492, 35662.94
881.2777, 35621.93
883.2062, 35573.90
885.1346, 35537.05
887.0631, 35512.72
888.9916, 35489.85
890.9200, 35442.38
892.8485, 35395.31
894.7770, 35356.63
896.7054, 35312.61
898.6339, 35296.02
900.5624, 35283.81
902.4908, 35251.57
904.4193, 35232.51
906.3478, 35222.84
908.2762, 35180.41
910.2047, 35101.64
912.1332, 35039.41
914.0616, 35007.37
915.9901, 34952.88
917.9186, 34866.12
919.8470, 34811.56
921.7755, 34843.42
923.7040, 34888.44
925.6324, 34829.90
927.5609, 34735.91
929.4894, 34716.86
931.4178, 34727.05
933.3463, 34691.23
935.2748, 34603.21
937.2032, 34526.65
939.1317, 34539.27
941.0602, 34614.01
942.9886, 34630.48
944.9171, 34581.72
946.8456, 34556.71
948.7740, 34526.99
950.7025, 34464.06
952.6310, 34445.38
954.5594, 34457.44
956.4879, 34447.68
958.4164, 34452.90
960.3448, 34463.69
962.2733, 34421.49
964.2018, 34289.62
966.1302, 34148.78
968.0587, 34096.49
969.9872, 34081.82
971.9156, 34067.82
973.8441, 34048.08
975.7726, 34001.37
977.7010, 33936.19
979.6295, 33906.71
981.5580, 33927.86
983.4865, 33919.54
985.4149, 33840.61
987.3434, 33728.58
989.2719, 33653.94
991.2003, 33646.81
993.1288, 33636.85
995.0573, 33581.58
996.9857, 33530.59
998.9142, 33474.72
1000.843, 33394.52
1002.771, 33364.45
1004.700, 33362.00
1006.628, 33287.58
1008.557, 33177.94
1010.485, 33100.36
1012.413, 33049.72
1014.342, 33024.20
1016.270, 33012.23
1018.199, 32970.91
1020.127, 32901.58
1022.056, 32878.12
1023.984, 32895.55
1025.913, 32858.75
1027.841, 32783.26
1029.770, 32739.69
1031.698, 32719.34
1033.627, 32707.15
1035.555, 32715.60
1037.484, 32745.66
1039.412, 32760.52
1041.340, 32718.22
1043.269, 32654.45
1045.197, 32617.51
1047.126, 32606.59
1049.054, 32621.72
1050.983, 32630.56
1052.911, 32615.78
1054.840, 32608.93
1056.768, 32568.88
1058.697, 32507.78
1060.625, 32546.78
1062.554, 32644.63
1064.482, 32680.56
1066.411, 32657.09
1068.339, 32580.55
1070.267, 32474.74
1072.196, 32416.83
1074.124, 32427.02
1076.053, 32474.29
1077.981, 32504.75
1079.910, 32500.87
1081.838, 32475.63
1083.767, 32427.29
1085.695, 32417.08
1087.624, 32433.64
1089.552, 32427.73
1091.481, 32487.23
1093.409, 32574.83
1095.338, 32591.56
1097.266, 32584.32
1099.194, 32588.98
1101.123, 32615.28
1103.051, 32656.73
1104.980, 32698.11
1106.908, 32736.63
1108.837, 32785.86
1110.765, 32878.81
1112.694, 32924.05
1114.622, 32895.72
1116.551, 32902.11
1118.479, 32942.23
1120.408, 32957.59
1122.336, 32947.95
1124.265, 32909.14
1126.193, 32856.43
1128.121, 32839.54
1130.050, 32839.91
1131.978, 32813.34
1133.907, 32770.38
1135.835, 32776.29
1137.764, 32796.30
1139.692, 32673.51
1141.621, 32489.91
1143.549, 32413.12
1145.478, 32391.04
1147.406, 32379.44
1149.335, 32370.70
1151.263, 32349.18
1153.192, 32322.43
1155.120, 32294.69
1157.048, 32256.29
1158.977, 32213.32
1160.905, 32155.07
1162.834, 32049.22
1164.762, 31968.70
1166.691, 31949.43
1168.619, 31944.63
1170.548, 31953.75
1172.476, 31954.60
1174.405, 31931.78
1176.333, 31887.53
1178.262, 31828.62
1180.190, 31818.38
1182.119, 31854.05
1184.047, 31859.25
1185.975, 31838.47
1187.904, 31773.85
1189.832, 31671.13
1191.761, 31628.36
1193.689, 31630.29
1195.618, 31608.69
1197.546, 31579.76
1199.475, 31594.81
1201.403, 31620.47
1203.332, 31592.15
1205.260, 31557.74
1207.189, 31564.89
1209.117, 31590.40
1211.046, 31618.08
1212.974, 31660.02
1214.902, 31732.23
1216.831, 31800.95
1218.759, 31858.04
1220.688, 31909.20
1222.616, 31952.85
1224.545, 32004.47
1226.473, 32067.19
1228.402, 32117.56
1230.330, 32156.25
1232.259, 32279.34
1234.187, 32458.58
1236.116, 32494.44
1238.044, 32427.98
1239.973, 32382.31
1241.901, 32361.65
1243.829, 32383.63
1245.758, 32399.92
1247.686, 32374.60
1249.615, 32305.74
1251.543, 32154.10
1253.472, 32005.36
1255.400, 31900.58
1257.329, 31824.76
1259.257, 31781.20
1261.186, 31752.37
1263.114, 31743.76
1265.043, 31712.89
1266.971, 31651.41
1268.900, 31637.61
1270.828, 31669.66
1272.756, 31647.55
1274.685, 31581.75
1276.613, 31545.97
1278.542, 31542.36
1280.470, 31551.75
1282.399, 31551.53
1284.327, 31548.67
1286.256, 31507.17
1288.184, 31361.41
1290.113, 31231.20
1292.041, 31176.11
1293.970, 31148.93
1295.898, 31169.45
1297.827, 31152.11
1299.755, 31063.42
1301.683, 30972.17
1303.612, 30883.81
1305.540, 30799.72
1307.469, 30722.82
1309.397, 30758.64
1311.326, 30846.26
1313.254, 30806.11
1315.183, 30725.87
1317.111, 30717.31
1319.040, 30737.54
1320.968, 30762.07
1322.897, 30784.35
1324.825, 30803.75
1326.754, 30833.69
1328.682, 30883.35
1330.610, 30861.78
1332.539, 30732.88
1334.467, 30796.95
1336.396, 31042.39
1338.324, 31035.44
1340.253, 30871.03
1342.181, 30860.72
1344.110, 30928.43
1346.038, 30995.40
1347.967, 31047.59
1349.895, 31046.94
1351.824, 31038.69
1353.752, 31049.12
1355.681, 31055.38
1357.609, 31054.23
1359.537, 31014.64
1361.466, 30934.76
1363.394, 30888.42
1365.323, 30868.34
1367.251, 30784.14
1369.180, 30683.96
1371.108, 30714.50
1373.037, 30784.88
1374.965, 30795.17
1376.894, 30760.56
1378.822, 30649.23
1380.751, 30563.93
1382.679, 30545.38
1384.608, 30550.41
1386.536, 30575.23
1388.464, 30533.68
1390.393, 30429.40
1392.321, 30409.93
1394.250, 30438.25
1396.178, 30358.29
1398.107, 30244.85
1400.035, 30221.91
1401.964, 30206.74
1403.892, 30110.87
1405.821, 30027.32
1407.749, 29989.55
1409.678, 29982.32
1411.606, 30011.92
1413.535, 30015.33
1415.463, 29986.53
1417.391, 29882.87
1419.320, 29757.37
1421.248, 29773.03
1423.177, 29835.21
1425.105, 29842.85
1427.034, 29819.42
1428.962, 29741.90
1430.891, 29708.90
1432.819, 29812.36
1434.748, 29812.27
1436.676, 29673.02
1438.605, 29678.81
1440.533, 29799.37
1442.462, 29812.43
1444.390, 29778.70
1446.319, 29806.60
1448.247, 29849.47
1450.176, 29898.76
1452.104, 29896.62
1454.032, 29777.52
1455.961, 29688.46
1457.889, 29655.27
1459.818, 29637.80
1461.746, 29634.18
1463.675, 29604.93
1465.603, 29570.15
1467.532, 29591.25
1469.460, 29609.50
1471.389, 29562.75
1473.317, 29523.21
1475.246, 29533.67
1477.174, 29521.98
1479.103, 29457.07
1481.031, 29462.74
1482.959, 29528.54
1484.888, 29512.41
1486.816, 29450.73
1488.745, 29402.68
1490.673, 29374.01
1492.602, 29380.41
1494.530, 29378.20
1496.459, 29351.02
1498.387, 29309.00
1500.316, 29249.42
1502.244, 29240.32
1504.173, 29269.45
1506.101, 29271.38
1508.030, 29263.93
1509.958, 29267.30
1511.886, 29286.63
1513.815, 29342.31
1515.743, 29357.19
1517.672, 29303.61
1519.600, 29278.29
1521.529, 29290.00
1523.457, 29306.37
1525.386, 29313.52
1527.314, 29255.27
1529.243, 29202.65
1531.171, 29248.66
1533.100, 29272.65
1535.028, 29220.95
1536.957, 29220.89
1538.885, 29288.53
1540.813, 29347.54
1542.742, 29391.86
1544.670, 29393.23
1546.599, 29410.15
1548.527, 29547.80
1550.456, 29668.18
1552.384, 29683.91
1554.313, 29739.78
1556.241, 29857.01
1558.170, 29910.85
1560.098, 29931.83
1562.027, 30094.99
1563.955, 30287.59
1565.884, 30360.13
1567.812, 30404.37
1569.740, 30452.32
1571.669, 30528.19
1573.597, 30638.90
1575.526, 30729.48
1577.454, 30796.05
1579.383, 30855.94
1581.311, 30863.85
1583.240, 30744.80
1585.168, 30582.05
1587.097, 30391.02
1589.025, 30231.16
1590.954, 30112.64
1592.882, 29992.31
1594.811, 29864.81
1596.739, 29701.96
1598.667, 29539.74
1600.596, 29390.26
1602.524, 29300.01
1604.453, 29364.49
1606.381, 29311.12
1608.310, 29115.48
1610.238, 28859.69
1612.167, 28602.41
1614.095, 28551.76
1616.024, 28519.20
1617.952, 28373.69
1619.881, 28171.95
1621.809, 27908.36
1623.738, 27673.53
1625.666, 27472.79
1627.594, 27330.35
1629.523, 27236.96
1631.451, 27222.13
1633.380, 27168.27
1635.308, 26990.59
1637.237, 26857.32
1639.165, 26804.46
1641.094, 26803.64
1643.022, 26846.25
1644.951, 26954.32
1646.879, 27018.72
1648.808, 26908.74
1650.736, 26828.85
1652.665, 26850.24
1654.593, 26818.78
1656.521, 26723.41
1658.450, 26606.81
1660.378, 26450.29
1662.307, 26195.66
1664.235, 25944.14
1666.164, 25737.29
1668.092, 25539.50
1670.021, 25345.68
1671.949, 25153.92
1673.878, 24977.10
1675.806, 24834.26
1677.735, 24735.72
1679.663, 24708.26
1681.592, 24672.21
1683.520, 24614.66
1685.448, 24534.02
1687.377, 24429.63
1689.305, 24265.91
1691.234, 24130.40
1693.162, 24116.42
1695.091, 24135.96
1697.019, 24180.95
1698.948, 24095.76
1700.876, 23921.60
1702.805, 23822.31
1704.733, 23779.69
1706.662, 23822.48
1708.590, 23814.44
1710.519, 23710.09
1712.447, 23620.95
1714.375, 23563.07
1716.304, 23614.64
1718.232, 23659.07
1720.161, 23561.87
1722.089, 23442.69
1724.018, 23329.54
1725.946, 23239.53
1727.875, 23173.60
1729.803, 23154.58
1731.732, 23131.83
1733.660, 23029.98
1735.589, 22958.59
1737.517, 22983.86
1739.446, 22943.15
1741.374, 22848.61
1743.302, 22758.83
1745.231, 22678.68
1747.159, 22608.46
1749.088, 22559.73
1751.016, 22557.65
1752.945, 22464.02
1754.873, 22331.61
1756.802, 22403.72
1758.730, 22499.52
1760.659, 22493.64
1762.587, 22449.96
1764.516, 22383.93
1766.444, 22234.98
1768.373, 22063.11
1770.301, 22046.62
1772.229, 22060.24
1774.158, 22048.32
1776.086, 21982.29
1778.015, 21856.00
1779.943, 21750.92
1781.872, 21679.67
1783.800, 21694.73
1785.729, 21699.53
1787.657, 21659.28
1789.586, 21581.08
1791.514, 21474.91
1793.443, 21390.62
1795.371, 21330.38
1797.300, 21310.62
1799.228, 21286.88
1801.156, 21248.83
1803.085, 21207.87
1805.013, 21175.07
1806.942, 21207.01
1808.870, 21206.67
1810.799, 21095.13
1812.727, 21000.76
1814.656, 20937.56
1816.584, 20839.51
1818.513, 20742.89
1820.441, 20723.08
1822.370, 20684.41
1824.298, 20590.61
1826.227, 20530.36
1828.155, 20496.46
1830.083, 20420.28
1832.012, 20356.26
1833.940, 20366.91
1835.869, 20370.03
1837.797, 20354.06
1839.726, 20321.06
1841.654, 20262.63
1843.583, 20145.48
1845.511, 20036.61
1847.440, 19962.80
1849.368, 19909.04
1851.297, 19867.09
1853.225, 19822.18
1855.154, 19771.02
1857.082, 19699.71
1859.010, 19650.75
1860.939, 19624.40
1862.867, 19587.52
1864.796, 19547.41
1866.724, 19515.53
1868.653, 19462.31
1870.581, 19375.87
1872.510, 19267.20
1874.438, 19163.48
1876.367, 19148.26
1878.295, 19139.39
1880.224, 19104.70
1882.152, 19050.61
1884.081, 18981.70
1886.009, 18921.32
1887.938, 18865.68
1889.866, 18799.74
1891.794, 18755.26
1893.723, 18741.83
1895.651, 18707.29
1897.580, 18652.88
1899.508, 18559.37
1901.437, 18479.01
1903.365, 18428.96
1905.294, 18371.89
1907.222, 18306.43
1909.151, 18245.75
1911.079, 18163.07
1913.008, 18033.08
1914.936, 17970.04
1916.865, 17961.52
1918.793, 17927.37
1920.721, 17896.98
1922.650, 17885.86
1924.578, 17835.82
1926.507, 17766.24
1928.435, 17755.89
1930.364, 17711.14
1932.292, 17539.60
1934.221, 17474.19
1936.149, 17506.66
1938.078, 17442.03
1940.006, 17353.22
1941.935, 17304.78
1943.863, 17292.24
1945.792, 17295.17
1947.720, 17208.81
1949.648, 17113.81
1951.577, 17136.60
1953.505, 17081.13
1955.434, 16916.17
1957.362, 16869.14
1959.291, 16855.03
1961.219, 16737.08
1963.148, 16634.35
1965.076, 16571.95
1967.005, 16618.53
1968.933, 16649.72
1970.862, 16454.28
1972.790, 16326.65
1974.719, 16345.52
1976.647, 16312.00
1978.575, 16241.39
1980.504, 16145.50
1982.432, 16093.51
1984.361, 16117.66
1986.289, 16072.39
1988.218, 16006.79
1990.146, 15998.90
1992.075, 15955.69
1994.003, 15848.20
1995.932, 15785.85
1997.860, 15735.34
1999.789, 15661.85
2001.717, 15581.71
2003.646, 15482.82
2005.574, 15453.58
2007.502, 15444.57
2009.431, 15383.52
2011.359, 15335.18
2013.288, 15311.82
2015.216, 15203.82
2017.145, 15086.98
2019.073, 15050.23
2021.002, 15016.98
2022.930, 14981.62
2024.859, 14932.83
2026.787, 14875.87
2028.716, 14822.27
2030.644, 14777.72
2032.573, 14740.18
2034.501, 14676.37
2036.429, 14619.23
2038.358, 14599.37
2040.286, 14585.87
2042.215, 14561.03
2044.143, 14464.87
2046.072, 14372.75
2048.000, 14329.61
2049.929, 14284.30
2051.857, 14233.82
2053.786, 14187.62
2055.714, 14137.45
2057.643, 14082.55
2059.571, 13996.70
2061.500, 13916.71
2063.428, 13940.24
2065.356, 13929.87
2067.285, 13850.38
2069.213, 13805.67
2071.142, 13773.78
2073.070, 13718.34
2074.999, 13679.55
2076.927, 13658.08
2078.856, 13565.17
